#S 1 spectral density
#N 2
#UFWHM 128.285
#L  abscissas [um]  spectral density
-1250  3.1819e+18
-1246.87  4.14155e+18
-1243.74  2.74533e+18
-1240.61  3.96003e+18
-1237.48  3.42157e+18
-1234.36  3.10899e+18
-1231.23  3.83165e+18
-1228.1  3.23028e+18
-1224.97  3.57794e+18
-1221.84  3.51654e+18
-1218.71  3.60685e+18
-1215.58  3.13379e+18
-1212.45  3.85136e+18
-1209.32  3.50144e+18
-1206.2  3.2133e+18
-1203.07  4.40141e+18
-1199.94  2.58672e+18
-1196.81  4.09204e+18
-1193.68  3.84892e+18
-1190.55  2.78328e+18
-1187.42  4.87391e+18
-1184.29  2.62415e+18
-1181.16  3.90165e+18
-1178.04  4.24655e+18
-1174.91  2.7307e+18
-1171.78  4.66244e+18
-1168.65  3.15165e+18
-1165.52  3.70284e+18
-1162.39  4.23801e+18
-1159.26  3.26335e+18
-1156.13  4.03192e+18
-1153  3.67352e+18
-1149.87  3.88844e+18
-1146.75  3.77553e+18
-1143.62  4.06372e+18
-1140.49  3.62088e+18
-1137.36  3.83801e+18
-1134.23  4.37573e+18
-1131.1  3.2918e+18
-1127.97  4.58225e+18
-1124.84  3.77978e+18
-1121.71  3.79735e+18
-1118.59  4.71604e+18
-1115.46  3.31105e+18
-1112.33  4.56711e+18
-1109.2  4.18376e+18
-1106.07  3.97306e+18
-1102.94  4.58439e+18
-1099.81  3.9523e+18
-1096.68  4.31932e+18
-1093.55  4.23807e+18
-1090.43  4.54863e+18
-1087.3  4.06441e+18
-1084.17  4.71978e+18
-1081.04  4.35611e+18
-1077.91  3.86191e+18
-1074.78  5.30596e+18
-1071.65  3.56642e+18
-1068.52  4.94348e+18
-1065.39  4.79355e+18
-1062.27  3.54354e+18
-1059.14  5.79185e+18
-1056.01  3.57837e+18
-1052.88  4.68018e+18
-1049.75  5.26729e+18
-1046.62  3.66848e+18
-1043.49  5.63406e+18
-1040.36  4.22104e+18
-1037.23  4.66801e+18
-1034.11  5.40622e+18
-1030.98  4.35809e+18
-1027.85  5.18611e+18
-1024.72  5.05046e+18
-1021.59  5.15234e+18
-1018.46  5.14399e+18
-1015.33  5.4947e+18
-1012.2  5.25576e+18
-1009.07  5.61053e+18
-1005.95  5.92555e+18
-1002.82  5.05995e+18
-999.687  6.44215e+18
-996.558  5.72668e+18
-993.429  5.86136e+18
-990.3  6.71004e+18
-987.172  5.72613e+18
-984.043  6.78496e+18
-980.914  6.25975e+18
-977.785  6.29399e+18
-974.656  6.71235e+18
-971.527  6.49294e+18
-968.398  6.69391e+18
-965.269  6.53034e+18
-962.14  7.10058e+18
-959.011  6.0449e+18
-955.882  7.02919e+18
-952.754  6.50768e+18
-949.625  5.77867e+18
-946.496  7.53201e+18
-943.367  5.23917e+18
-940.238  6.84548e+18
-937.109  6.43214e+18
-933.98  4.91343e+18
-930.851  7.34614e+18
-927.722  4.53337e+18
-924.593  5.85262e+18
-921.464  6.07467e+18
-918.336  4.21288e+18
-915.207  6.22551e+18
-912.078  4.437e+18
-908.949  5.11652e+18
-905.82  5.10107e+18
-902.691  4.22058e+18
-899.562  5.12817e+18
-896.433  4.25652e+18
-893.304  4.72147e+18
-890.175  4.08679e+18
-887.046  4.78289e+18
-883.918  4.26154e+18
-880.789  3.91768e+18
-877.66  5.30836e+18
-874.531  3.51268e+18
-871.402  5.07026e+18
-868.273  4.61232e+18
-865.144  3.98123e+18
-862.015  5.62974e+18
-858.886  3.77818e+18
-855.757  5.14816e+18
-852.628  5.03652e+18
-849.5  4.24809e+18
-846.371  5.60617e+18
-843.242  4.86731e+18
-840.113  5.10047e+18
-836.984  5.46002e+18
-833.855  5.381e+18
-830.726  4.94898e+18
-827.597  5.78757e+18
-824.468  5.15842e+18
-821.339  4.79323e+18
-818.21  6.26789e+18
-815.082  4.20868e+18
-811.953  5.78999e+18
-808.824  5.53091e+18
-805.695  4.22266e+18
-802.566  6.50358e+18
-799.437  4.0316e+18
-796.308  5.46946e+18
-793.179  5.44879e+18
-790.05  3.75642e+18
-786.921  6.05975e+18
-783.792  4.02913e+18
-780.663  4.71241e+18
-777.535  5.13894e+18
-774.406  4.15844e+18
-771.277  4.90967e+18
-768.148  4.4231e+18
-765.019  5.01528e+18
-761.89  4.12858e+18
-758.761  5.16297e+18
-755.632  4.83388e+18
-752.503  4.29692e+18
-749.374  5.96119e+18
-746.245  4.20751e+18
-743.117  5.75742e+18
-739.988  5.45777e+18
-736.859  4.82586e+18
-733.73  6.58709e+18
-730.601  4.83492e+18
-727.472  6.25653e+18
-724.343  6.17708e+18
-721.214  5.49409e+18
-718.085  6.87982e+18
-714.956  6.15112e+18
-711.827  6.50869e+18
-708.699  6.97807e+18
-705.57  7.00483e+18
-702.441  6.72757e+18
-699.312  7.86504e+18
-696.183  7.17047e+18
-693.054  7.18751e+18
-689.925  8.8097e+18
-686.796  6.41421e+18
-683.667  8.86114e+18
-680.538  8.11953e+18
-677.409  6.81066e+18
-674.281  1.01435e+19
-671.152  6.72684e+18
-668.023  8.9702e+18
-664.894  9.45202e+18
-661.765  7.21559e+18
-658.636  1.05575e+19
-655.507  8.42275e+18
-652.378  9.47191e+18
-649.249  1.02747e+19
-646.12  9.43385e+18
-642.991  1.08529e+19
-639.863  1.01819e+19
-636.734  1.16065e+19
-633.605  1.0779e+19
-630.476  1.20231e+19
-627.347  1.25111e+19
-624.218  1.14953e+19
-621.089  1.42188e+19
-617.96  1.23959e+19
-614.831  1.37981e+19
-611.702  1.48357e+19
-608.573  1.32623e+19
-605.445  1.56848e+19
-602.316  1.47451e+19
-599.187  1.49152e+19
-596.058  1.60749e+19
-592.929  1.52714e+19
-589.8  1.5551e+19
-586.671  1.62416e+19
-583.542  1.53777e+19
-580.413  1.5371e+19
-577.284  1.6477e+19
-574.155  1.40384e+19
-571.027  1.58582e+19
-567.898  1.50374e+19
-564.769  1.29108e+19
-561.64  1.61199e+19
-558.511  1.18813e+19
-555.382  1.35106e+19
-552.253  1.39109e+19
-549.124  9.83677e+18
-545.995  1.3986e+19
-542.866  1.00339e+19
-539.737  1.02274e+19
-536.609  1.20444e+19
-533.48  7.74584e+18
-530.351  1.07807e+19
-527.222  9.04036e+18
-524.093  7.79857e+18
-520.964  9.82346e+18
-517.835  7.66914e+18
-514.706  8.07186e+18
-511.577  9.00064e+18
-508.448  7.6061e+18
-505.319  8.16353e+18
-502.191  9.56685e+18
-499.062  7.26203e+18
-495.933  9.87099e+18
-492.804  9.72341e+18
-489.675  7.89278e+18
-486.546  1.25781e+19
-483.417  8.55706e+18
-480.288  1.14119e+19
-477.159  1.29929e+19
-474.03  8.9704e+18
-470.901  1.54791e+19
-467.772  1.08855e+19
-464.644  1.29703e+19
-461.515  1.57629e+19
-458.386  1.04244e+19
-455.257  1.70925e+19
-452.128  1.26785e+19
-448.999  1.36394e+19
-445.87  1.67306e+19
-442.741  1.10557e+19
-439.612  1.67284e+19
-436.483  1.28583e+19
-433.354  1.28415e+19
-430.226  1.55607e+19
-427.097  1.03165e+19
-423.968  1.45924e+19
-420.839  1.14665e+19
-417.71  1.08813e+19
-414.581  1.30819e+19
-411.452  8.7558e+18
-408.323  1.18761e+19
-405.194  9.65495e+18
-402.065  8.99846e+18
-398.936  1.09435e+19
-395.808  7.77065e+18
-392.679  1.03109e+19
-389.55  9.06388e+18
-386.421  8.78685e+18
-383.292  1.08064e+19
-380.163  8.80423e+18
-377.034  1.12941e+19
-373.905  1.08905e+19
-370.776  1.12586e+19
-367.647  1.34232e+19
-364.518  1.24212e+19
-361.39  1.50251e+19
-358.261  1.51255e+19
-355.132  1.60794e+19
-352.003  1.8112e+19
-348.874  1.77727e+19
-345.745  2.02024e+19
-342.616  2.03843e+19
-339.487  2.14928e+19
-336.358  2.29887e+19
-333.229  2.28138e+19
-330.1  2.45998e+19
-326.972  2.44808e+19
-323.843  2.51597e+19
-320.714  2.59037e+19
-317.585  2.53254e+19
-314.456  2.63145e+19
-311.327  2.55525e+19
-308.198  2.56085e+19
-305.069  2.56071e+19
-301.94  2.43932e+19
-298.811  2.49429e+19
-295.682  2.33428e+19
-292.554  2.34046e+19
-289.425  2.26264e+19
-286.296  2.15022e+19
-283.167  2.19465e+19
-280.038  2.00549e+19
-276.909  2.10423e+19
-273.78  1.96215e+19
-270.651  2.01147e+19
-267.522  2.02356e+19
-264.393  1.98045e+19
-261.264  2.16015e+19
-258.136  2.0801e+19
-255.007  2.34942e+19
-251.878  2.34379e+19
-248.749  2.60048e+19
-245.62  2.75693e+19
-242.491  2.94687e+19
-239.362  3.27488e+19
-236.233  3.41837e+19
-233.104  3.85185e+19
-229.975  4.01517e+19
-226.846  4.45928e+19
-223.718  4.70101e+19
-220.589  5.08474e+19
-217.46  5.41596e+19
-214.331  5.71784e+19
-211.202  6.09769e+19
-208.073  6.33632e+19
-204.944  6.69822e+19
-201.815  6.90235e+19
-198.686  7.18967e+19
-195.557  7.37087e+19
-192.428  7.56084e+19
-189.3  7.70459e+19
-186.171  7.81093e+19
-183.042  7.88818e+19
-179.913  7.94661e+19
-176.784  7.93633e+19
-173.655  7.98487e+19
-170.526  7.89468e+19
-167.397  7.96029e+19
-164.268  7.8357e+19
-161.139  7.93292e+19
-158.01  7.85295e+19
-154.882  7.99324e+19
-151.753  8.05623e+19
-148.624  8.26209e+19
-145.495  8.56851e+19
-142.366  8.88552e+19
-139.237  9.52394e+19
-136.108  1.00258e+20
-132.979  1.10654e+20
-129.85  1.18504e+20
-126.721  1.33402e+20
-123.592  1.45211e+20
-120.463  1.64937e+20
-117.335  1.81833e+20
-114.206  2.06602e+20
-111.077  2.29571e+20
-107.948  2.59524e+20
-104.819  2.8929e+20
-101.69  3.24513e+20
-98.5611  3.61456e+20
-95.4322  4.01957e+20
-92.3033  4.46078e+20
-89.1744  4.9175e+20
-86.0455  5.42666e+20
-82.9166  5.93234e+20
-79.7877  6.50204e+20
-76.6587  7.0518e+20
-73.5298  7.67148e+20
-70.4009  8.25796e+20
-67.272  8.9144e+20
-64.1431  9.52764e+20
-61.0142  1.02056e+21
-57.8853  1.08332e+21
-54.7564  1.15158e+21
-51.6275  1.21432e+21
-48.4986  1.28128e+21
-45.3697  1.3424e+21
-42.2407  1.40625e+21
-39.1118  1.46405e+21
-35.9829  1.52304e+21
-32.854  1.57583e+21
-29.7251  1.62826e+21
-26.5962  1.67443e+21
-23.4673  1.71878e+21
-20.3384  1.75685e+21
-17.2095  1.79182e+21
-14.0806  1.82056e+21
-10.9516  1.84509e+21
-7.82273  1.86354e+21
-4.69382  1.87688e+21
-1.56491  1.88444e+21
1.564  1.88617e+21
4.69291  1.88259e+21
7.82182  1.87264e+21
10.9507  1.85805e+21
14.0796  1.83671e+21
17.2085  1.8116e+21
20.3375  1.77951e+21
23.4664  1.74473e+21
26.5953  1.70283e+21
29.7242  1.65952e+21
32.8531  1.60904e+21
35.982  1.5586e+21
39.1109  1.501e+21
42.2398  1.445e+21
45.3687  1.38192e+21
48.4977  1.32203e+21
51.6266  1.25523e+21
54.7555  1.19313e+21
57.8844  1.12445e+21
61.0133  1.06175e+21
64.1422  9.92996e+20
67.2711  9.31203e+20
70.4  8.64123e+20
73.5289  8.04522e+20
76.6578  7.40736e+20
79.7867  6.84394e+20
82.9157  6.25321e+20
86.0446  5.73055e+20
89.1735  5.19858e+20
92.3024  4.72246e+20
95.4313  4.25769e+20
98.5602  3.83183e+20
101.689  3.43905e+20
104.818  3.06551e+20
107.947  2.74556e+20
111.076  2.4252e+20
114.205  2.17498e+20
117.334  1.90779e+20
120.463  1.72061e+20
123.591  1.50589e+20
126.72  1.37228e+20
129.849  1.2084e+20
132.978  1.11735e+20
136.107  1.00134e+20
139.236  9.41732e+19
142.365  8.68756e+19
145.494  8.30769e+19
148.623  7.93779e+19
151.752  7.69942e+19
154.881  7.59818e+19
158.01  7.45303e+19
161.138  7.5168e+19
164.267  7.43782e+19
167.396  7.56526e+19
170.525  7.53467e+19
173.654  7.64431e+19
176.783  7.64005e+19
179.912  7.68426e+19
183.041  7.67175e+19
186.17  7.64041e+19
189.299  7.57542e+19
192.428  7.48576e+19
195.556  7.32903e+19
198.685  7.20446e+19
201.814  6.942e+19
204.943  6.78987e+19
208.072  6.44678e+19
211.201  6.24827e+19
214.33  5.88437e+19
217.459  5.60552e+19
220.588  5.28933e+19
223.717  4.91027e+19
226.846  4.68184e+19
229.974  4.22721e+19
233.103  4.07211e+19
236.232  3.61918e+19
239.361  3.47482e+19
242.49  3.12507e+19
245.619  2.92305e+19
248.748  2.74686e+19
251.877  2.46839e+19
255.006  2.45714e+19
258.135  2.16102e+19
261.264  2.22568e+19
264.392  2.01963e+19
267.521  2.04764e+19
270.65  2.01338e+19
273.779  1.94987e+19
276.908  2.07509e+19
280.037  1.96505e+19
283.166  2.14253e+19
286.295  2.09084e+19
289.424  2.19748e+19
292.553  2.27108e+19
295.682  2.26671e+19
298.81  2.4236e+19
301.939  2.37837e+19
305.068  2.49796e+19
308.197  2.51212e+19
311.326  2.50979e+19
314.455  2.59757e+19
317.584  2.51131e+19
320.713  2.57349e+19
323.842  2.5204e+19
326.971  2.45188e+19
330.1  2.48549e+19
333.228  2.30965e+19
336.357  2.33844e+19
339.486  2.20156e+19
342.615  2.08772e+19
345.744  2.08878e+19
348.873  1.83611e+19
352.002  1.88343e+19
355.131  1.67621e+19
358.26  1.57798e+19
361.389  1.57447e+19
364.518  1.29725e+19
367.646  1.40611e+19
370.775  1.17198e+19
373.904  1.13305e+19
377.033  1.16568e+19
380.162  9.00189e+18
383.291  1.10069e+19
386.42  8.77045e+18
389.549  9.02499e+18
392.678  1.01179e+19
395.807  7.46889e+18
398.936  1.05742e+19
402.064  8.47421e+18
405.193  9.09588e+18
408.322  1.11843e+19
411.451  8.02529e+18
414.58  1.22593e+19
417.709  1.00264e+19
420.838  1.05538e+19
423.967  1.36488e+19
427.096  9.378e+18
430.225  1.45535e+19
433.354  1.1925e+19
436.482  1.18496e+19
439.611  1.58211e+19
442.74  1.01442e+19
445.869  1.58019e+19
448.998  1.28707e+19
452.127  1.17724e+19
455.256  1.63954e+19
458.385  9.65364e+18
461.514  1.50285e+19
464.643  1.238e+19
467.772  1.011e+19
470.901  1.49541e+19
474.029  8.25815e+18
477.158  1.23549e+19
480.287  1.08132e+19
483.416  7.74043e+18
486.545  1.19713e+19
489.674  6.97126e+18
492.803  8.89655e+18
495.932  8.90914e+18
499.061  6.08658e+18
502.19  8.48905e+18
505.319  6.6603e+18
508.447  6.21602e+18
511.576  7.26237e+18
514.705  6.17587e+18
517.834  5.72534e+18
520.963  7.37052e+18
524.092  5.50301e+18
527.221  6.18219e+18
530.35  7.85575e+18
533.479  4.66343e+18
536.608  8.37615e+18
539.737  6.8027e+18
542.865  5.89486e+18
545.994  9.83268e+18
549.123  5.54147e+18
552.252  8.9432e+18
555.381  8.86403e+18
558.51  6.55275e+18
561.639  1.06803e+19
564.768  7.50573e+18
567.897  8.94312e+18
571.026  9.99789e+18
574.155  7.84358e+18
577.283  9.91415e+18
580.412  9.03626e+18
583.541  8.61783e+18
586.67  9.32466e+18
589.799  8.90014e+18
592.928  8.08137e+18
596.057  9.03184e+18
599.186  8.10562e+18
602.315  7.24712e+18
605.444  8.91957e+18
608.573  6.2067e+18
611.701  7.50371e+18
614.83  7.43459e+18
617.959  5.13198e+18
621.088  7.67689e+18
624.217  5.242e+18
627.346  5.61273e+18
630.475  6.40007e+18
633.604  4.53096e+18
636.733  5.78976e+18
639.862  5.07736e+18
642.991  5.11902e+18
646.119  4.84072e+18
649.248  5.48009e+18
652.377  4.89435e+18
655.506  4.67769e+18
658.635  6.42808e+18
661.764  3.91434e+18
664.893  6.35117e+18
668.022  5.93167e+18
671.151  4.43019e+18
674.28  7.87267e+18
677.409  4.87284e+18
680.537  6.70351e+18
683.666  7.54204e+18
686.795  5.39263e+18
689.924  8.31953e+18
693.053  6.64823e+18
696.182  7.05155e+18
699.311  8.14518e+18
702.44  6.83764e+18
705.569  7.77811e+18
708.698  7.70171e+18
711.827  7.3643e+18
714.955  7.50573e+18
718.084  7.94328e+18
721.213  7.07448e+18
724.342  7.70752e+18
727.471  7.80073e+18
730.6  6.76045e+18
733.729  8.20953e+18
736.858  6.81379e+18
739.987  7.32846e+18
743.116  7.64267e+18
746.245  6.27006e+18
749.373  7.75978e+18
752.502  6.42532e+18
755.631  6.64316e+18
758.76  7.10152e+18
761.889  6.15744e+18
765.018  6.61318e+18
768.147  6.49692e+18
771.276  6.52689e+18
774.405  5.8026e+18
777.534  7.0336e+18
780.663  5.9655e+18
783.792  5.82053e+18
786.92  7.4707e+18
790.049  4.96042e+18
793.178  7.1805e+18
796.307  6.39362e+18
799.436  5.41111e+18
802.565  7.83328e+18
805.694  4.9545e+18
808.823  6.98159e+18
811.952  6.56457e+18
815.081  5.08507e+18
818.21  7.44147e+18
821.338  5.22687e+18
824.467  6.22899e+18
827.596  6.42484e+18
830.725  5.42074e+18
833.854  6.32365e+18
836.983  5.67322e+18
840.112  5.74029e+18
843.241  5.3405e+18
846.37  5.76476e+18
849.499  4.79365e+18
852.628  5.07252e+18
855.756  5.41596e+18
858.885  3.89884e+18
862.014  5.52974e+18
865.143  4.10704e+18
868.272  4.31499e+18
871.401  4.97019e+18
874.53  3.19928e+18
877.659  4.87742e+18
880.788  3.61665e+18
883.917  3.5412e+18
887.046  4.32227e+18
890.174  3.32343e+18
893.303  3.82977e+18
896.432  3.54614e+18
899.561  3.93017e+18
902.69  3.26805e+18
905.819  3.93696e+18
908.948  3.72671e+18
912.077  3.28984e+18
915.206  4.63509e+18
918.335  2.738e+18
921.464  4.54216e+18
924.592  4.00824e+18
927.721  2.89568e+18
930.85  5.43233e+18
933.979  2.96682e+18
937.108  4.5336e+18
940.237  4.70128e+18
943.366  3.18898e+18
946.495  5.35016e+18
949.624  3.54152e+18
952.753  4.27457e+18
955.882  4.69379e+18
959.01  3.76525e+18
962.139  4.68554e+18
965.268  4.22306e+18
968.397  4.29824e+18
971.526  4.05589e+18
974.655  4.47327e+18
977.784  3.76707e+18
980.913  4.04285e+18
984.042  4.48795e+18
987.171  3.2929e+18
990.3  4.74637e+18
993.428  3.46275e+18
996.557  3.70855e+18
999.686  4.51853e+18
1002.82  2.8428e+18
1005.94  4.35961e+18
1009.07  3.62648e+18
1012.2  3.57306e+18
1015.33  4.09469e+18
1018.46  3.40203e+18
1021.59  4.02178e+18
1024.72  3.69434e+18
1027.85  4.03576e+18
1030.98  3.47614e+18
1034.1  4.35662e+18
1037.23  4.01902e+18
1040.36  3.49934e+18
1043.49  5.1638e+18
1046.62  3.22174e+18
1049.75  4.96489e+18
1052.88  4.57536e+18
1056.01  3.33424e+18
1059.14  6.01484e+18
1062.26  3.46517e+18
1065.39  5.05653e+18
1068.52  5.36072e+18
1071.65  3.61953e+18
1074.78  6.04814e+18
1077.91  4.11044e+18
1081.04  4.88826e+18
1084.17  5.49364e+18
1087.3  4.30346e+18
1090.42  5.48139e+18
1093.55  4.72268e+18
1096.68  4.89345e+18
1099.81  4.80222e+18
1102.94  4.96072e+18
1106.07  4.78445e+18
1109.2  4.72699e+18
1112.33  5.10019e+18
1115.46  3.95191e+18
1118.58  5.16909e+18
1121.71  4.35359e+18
1124.84  4.17831e+18
1127.97  5.08374e+18
1131.1  3.58491e+18
1134.23  4.79447e+18
1137.36  4.1901e+18
1140.49  3.76056e+18
1143.62  4.5357e+18
1146.75  3.79522e+18
1149.87  4.16598e+18
1153  3.93545e+18
1156.13  3.96492e+18
1159.26  3.65553e+18
1162.39  4.1815e+18
1165.52  3.82565e+18
1168.65  3.37862e+18
1171.78  4.56864e+18
1174.91  2.9872e+18
1178.03  4.26691e+18
1181.16  3.97052e+18
1184.29  2.78989e+18
1187.42  4.9202e+18
1190.55  2.914e+18
1193.68  3.95838e+18
1196.81  4.23661e+18
1199.94  2.65322e+18
1203.07  4.61312e+18
1206.19  3.29647e+18
1209.32  3.61257e+18
1212.45  4.10726e+18
1215.58  3.12102e+18
1218.71  3.86288e+18
1221.84  3.61976e+18
1224.97  3.61895e+18
1228.1  3.49437e+18
1231.23  3.80821e+18
1234.35  3.2591e+18
1237.48  3.52464e+18
1240.61  3.94388e+18
1243.74  2.85855e+18
1246.87  4.15184e+18
1250  3.17281e+18
